Jan. 21, 2018   13:00:54
Chronopotentiometry
File: c:\users\lingd\desktop\Data Source:  Experiment
Instrument Model:  CHI660E
Header: 
Note: 

Cathodic Current (A) = 0.008808
Anodic Current (A) = 0.008808
Init P/N = N
Data Storage Interval (s) = 0.1
High E Limit (V) = 0.1
Low E Limit (V) = -0.9
Cathodic Time (s) = 10
Anodic Time (s) = 10
Current Switching Polarity = Potential
Segment = 5

Time/sec, Potential/V

1.000e-1, -8.019e-1
2.000e-1, -8.106e-1
3.000e-1, -8.176e-1
4.000e-1, -8.237e-1
5.000e-1, -8.291e-1
6.000e-1, -8.340e-1
7.000e-1, -8.385e-1
8.000e-1, -8.428e-1
9.000e-1, -8.468e-1
1.000e+0, -8.505e-1
1.100e+0, -8.541e-1
1.200e+0, -8.576e-1
1.300e+0, -8.609e-1
1.400e+0, -8.641e-1
1.500e+0, -8.671e-1
1.600e+0, -8.701e-1
1.700e+0, -8.730e-1
1.800e+0, -8.758e-1
1.900e+0, -8.785e-1
2.000e+0, -8.811e-1
2.100e+0, -8.837e-1
2.200e+0, -8.862e-1
2.300e+0, -8.887e-1
2.400e+0, -8.911e-1
2.500e+0, -8.935e-1
2.600e+0, -8.958e-1
2.700e+0, -8.981e-1
2.800e+0, -8.414e-1
2.900e+0, -8.168e-1
3.000e+0, -8.011e-1
3.100e+0, -7.887e-1
3.200e+0, -7.790e-1
3.300e+0, -7.704e-1
3.400e+0, -7.628e-1
3.500e+0, -7.558e-1
3.600e+0, -7.495e-1
3.700e+0, -7.436e-1
3.800e+0, -7.381e-1
3.900e+0, -7.329e-1
4.000e+0, -7.280e-1
4.100e+0, -7.234e-1
4.200e+0, -7.190e-1
4.300e+0, -7.147e-1
4.400e+0, -7.107e-1
4.500e+0, -7.068e-1
4.600e+0, -7.031e-1
4.700e+0, -6.995e-1
4.800e+0, -6.960e-1
4.900e+0, -6.926e-1
5.000e+0, -6.893e-1
5.100e+0, -6.860e-1
5.200e+0, -6.829e-1
5.300e+0, -6.799e-1
5.400e+0, -6.770e-1
5.500e+0, -6.741e-1
5.600e+0, -6.714e-1
5.700e+0, -6.687e-1
5.800e+0, -6.660e-1
5.900e+0, -6.634e-1
6.000e+0, -6.608e-1
6.100e+0, -6.581e-1
6.200e+0, -6.556e-1
6.300e+0, -6.532e-1
6.400e+0, -6.508e-1
6.500e+0, -6.485e-1
6.600e+0, -6.462e-1
6.700e+0, -6.439e-1
6.800e+0, -6.417e-1
6.900e+0, -6.395e-1
7.000e+0, -6.373e-1
7.100e+0, -6.352e-1
7.200e+0, -6.330e-1
7.300e+0, -6.309e-1
7.400e+0, -6.288e-1
7.500e+0, -6.267e-1
7.600e+0, -6.247e-1
7.700e+0, -6.227e-1
7.800e+0, -6.207e-1
7.900e+0, -6.187e-1
8.000e+0, -6.167e-1
8.100e+0, -6.148e-1
8.200e+0, -6.128e-1
8.300e+0, -6.109e-1
8.400e+0, -6.090e-1
8.500e+0, -6.072e-1
8.600e+0, -6.053e-1
8.700e+0, -6.034e-1
8.800e+0, -6.016e-1
8.900e+0, -5.998e-1
9.000e+0, -5.980e-1
9.100e+0, -5.962e-1
9.200e+0, -5.944e-1
9.300e+0, -5.927e-1
9.400e+0, -5.909e-1
9.500e+0, -5.892e-1
9.600e+0, -5.875e-1
9.700e+0, -5.858e-1
9.800e+0, -5.841e-1
9.900e+0, -5.824e-1
1.000e+1, -5.807e-1
1.010e+1, -5.790e-1
1.020e+1, -5.773e-1
1.030e+1, -5.757e-1
1.040e+1, -5.740e-1
1.050e+1, -5.724e-1
1.060e+1, -5.708e-1
1.070e+1, -5.692e-1
1.080e+1, -5.676e-1
1.090e+1, -5.660e-1
1.100e+1, -5.644e-1
1.110e+1, -5.628e-1
1.120e+1, -5.612e-1
1.130e+1, -5.596e-1
1.140e+1, -5.581e-1
1.150e+1, -5.565e-1
1.160e+1, -5.550e-1
1.170e+1, -5.534e-1
1.180e+1, -5.519e-1
1.190e+1, -5.504e-1
1.200e+1, -5.488e-1
1.210e+1, -5.473e-1
1.220e+1, -5.458e-1
1.230e+1, -5.443e-1
1.240e+1, -5.428e-1
1.250e+1, -5.413e-1
1.260e+1, -5.398e-1
1.270e+1, -5.384e-1
1.280e+1, -5.369e-1
1.290e+1, -5.354e-1
1.300e+1, -5.339e-1
1.310e+1, -5.325e-1
1.320e+1, -5.310e-1
1.330e+1, -5.295e-1
1.340e+1, -5.281e-1
1.350e+1, -5.266e-1
1.360e+1, -5.252e-1
1.370e+1, -5.238e-1
1.380e+1, -5.224e-1
1.390e+1, -5.209e-1
1.400e+1, -5.195e-1
1.410e+1, -5.181e-1
1.420e+1, -5.167e-1
1.430e+1, -5.153e-1
1.440e+1, -5.139e-1
1.450e+1, -5.125e-1
1.460e+1, -5.111e-1
1.470e+1, -5.097e-1
1.480e+1, -5.083e-1
1.490e+1, -5.069e-1
1.500e+1, -5.055e-1
1.510e+1, -5.042e-1
1.520e+1, -5.028e-1
1.530e+1, -5.014e-1
1.540e+1, -5.000e-1
1.550e+1, -4.987e-1
1.560e+1, -4.973e-1
1.570e+1, -4.959e-1
1.580e+1, -4.946e-1
1.590e+1, -4.932e-1
1.600e+1, -4.919e-1
1.610e+1, -4.905e-1
1.620e+1, -4.892e-1
1.630e+1, -4.878e-1
1.640e+1, -4.865e-1
1.650e+1, -4.852e-1
1.660e+1, -4.838e-1
1.670e+1, -4.825e-1
1.680e+1, -4.812e-1
1.690e+1, -4.798e-1
1.700e+1, -4.785e-1
1.710e+1, -4.772e-1
1.720e+1, -4.759e-1
1.730e+1, -4.745e-1
1.740e+1, -4.732e-1
1.750e+1, -4.719e-1
1.760e+1, -4.706e-1
1.770e+1, -4.693e-1
1.780e+1, -4.680e-1
1.790e+1, -4.667e-1
1.800e+1, -4.654e-1
1.810e+1, -4.641e-1
1.820e+1, -4.628e-1
1.830e+1, -4.615e-1
1.840e+1, -4.602e-1
1.850e+1, -4.589e-1
1.860e+1, -4.576e-1
1.870e+1, -4.563e-1
1.880e+1, -4.550e-1
1.890e+1, -4.538e-1
1.900e+1, -4.525e-1
1.910e+1, -4.512e-1
1.920e+1, -4.499e-1
1.930e+1, -4.486e-1
1.940e+1, -4.473e-1
1.950e+1, -4.461e-1
1.960e+1, -4.448e-1
1.970e+1, -4.435e-1
1.980e+1, -4.423e-1
1.990e+1, -4.410e-1
2.000e+1, -4.397e-1
2.010e+1, -4.385e-1
2.020e+1, -4.372e-1
2.030e+1, -4.359e-1
2.040e+1, -4.347e-1
2.050e+1, -4.334e-1
2.060e+1, -4.321e-1
2.070e+1, -4.309e-1
2.080e+1, -4.296e-1
2.090e+1, -4.284e-1
2.100e+1, -4.272e-1
2.110e+1, -4.259e-1
2.120e+1, -4.247e-1
2.130e+1, -4.234e-1
2.140e+1, -4.222e-1
2.150e+1, -4.209e-1
2.160e+1, -4.197e-1
2.170e+1, -4.184e-1
2.180e+1, -4.172e-1
2.190e+1, -4.160e-1
2.200e+1, -4.147e-1
2.210e+1, -4.135e-1
2.220e+1, -4.123e-1
2.230e+1, -4.110e-1
2.240e+1, -4.098e-1
2.250e+1, -4.086e-1
2.260e+1, -4.074e-1
2.270e+1, -4.061e-1
2.280e+1, -4.049e-1
2.290e+1, -4.037e-1
2.300e+1, -4.024e-1
2.310e+1, -4.012e-1
2.320e+1, -4.000e-1
2.330e+1, -3.988e-1
2.340e+1, -3.976e-1
2.350e+1, -3.963e-1
2.360e+1, -3.951e-1
2.370e+1, -3.939e-1
2.380e+1, -3.927e-1
2.390e+1, -3.915e-1
2.400e+1, -3.902e-1
2.410e+1, -3.890e-1
2.420e+1, -3.878e-1
2.430e+1, -3.866e-1
2.440e+1, -3.854e-1
2.450e+1, -3.841e-1
2.460e+1, -3.829e-1
2.470e+1, -3.817e-1
2.480e+1, -3.805e-1
2.490e+1, -3.793e-1
2.500e+1, -3.781e-1
2.510e+1, -3.769e-1
2.520e+1, -3.756e-1
2.530e+1, -3.744e-1
2.540e+1, -3.732e-1
2.550e+1, -3.720e-1
2.560e+1, -3.708e-1
2.570e+1, -3.696e-1
2.580e+1, -3.684e-1
2.590e+1, -3.671e-1
2.600e+1, -3.659e-1
2.610e+1, -3.647e-1
2.620e+1, -3.635e-1
2.630e+1, -3.623e-1
2.640e+1, -3.611e-1
2.650e+1, -3.599e-1
2.660e+1, -3.587e-1
2.670e+1, -3.575e-1
2.680e+1, -3.562e-1
2.690e+1, -3.550e-1
2.700e+1, -3.538e-1
2.710e+1, -3.526e-1
2.720e+1, -3.514e-1
2.730e+1, -3.502e-1
2.740e+1, -3.490e-1
2.750e+1, -3.478e-1
2.760e+1, -3.465e-1
2.770e+1, -3.453e-1
2.780e+1, -3.441e-1
2.790e+1, -3.429e-1
2.800e+1, -3.417e-1
2.810e+1, -3.404e-1
2.820e+1, -3.392e-1
2.830e+1, -3.380e-1
2.840e+1, -3.368e-1
2.850e+1, -3.355e-1
2.860e+1, -3.343e-1
2.870e+1, -3.331e-1
2.880e+1, -3.318e-1
2.890e+1, -3.306e-1
2.900e+1, -3.293e-1
2.910e+1, -3.281e-1
2.920e+1, -3.268e-1
2.930e+1, -3.256e-1
2.940e+1, -3.243e-1
2.950e+1, -3.231e-1
2.960e+1, -3.218e-1
2.970e+1, -3.206e-1
2.980e+1, -3.193e-1
2.990e+1, -3.180e-1
3.000e+1, -3.168e-1
3.010e+1, -3.155e-1
3.020e+1, -3.142e-1
3.030e+1, -3.129e-1
3.040e+1, -3.117e-1
3.050e+1, -3.104e-1
3.060e+1, -3.091e-1
3.070e+1, -3.078e-1
3.080e+1, -3.065e-1
3.090e+1, -3.052e-1
3.100e+1, -3.039e-1
3.110e+1, -3.027e-1
3.120e+1, -3.014e-1
3.130e+1, -3.001e-1
3.140e+1, -2.988e-1
3.150e+1, -2.975e-1
3.160e+1, -2.962e-1
3.170e+1, -2.949e-1
3.180e+1, -2.936e-1
3.190e+1, -2.923e-1
3.200e+1, -2.910e-1
3.210e+1, -2.897e-1
3.220e+1, -2.884e-1
3.230e+1, -2.871e-1
3.240e+1, -2.858e-1
3.250e+1, -2.845e-1
3.260e+1, -2.832e-1
3.270e+1, -2.819e-1
3.280e+1, -2.806e-1
3.290e+1, -2.793e-1
3.300e+1, -2.780e-1
3.310e+1, -2.767e-1
3.320e+1, -2.754e-1
3.330e+1, -2.740e-1
3.340e+1, -2.727e-1
3.350e+1, -2.714e-1
3.360e+1, -2.701e-1
3.370e+1, -2.688e-1
3.380e+1, -2.675e-1
3.390e+1, -2.662e-1
3.400e+1, -2.649e-1
3.410e+1, -2.635e-1
3.420e+1, -2.622e-1
3.430e+1, -2.609e-1
3.440e+1, -2.596e-1
3.450e+1, -2.582e-1
3.460e+1, -2.569e-1
3.470e+1, -2.556e-1
3.480e+1, -2.543e-1
3.490e+1, -2.529e-1
3.500e+1, -2.516e-1
3.510e+1, -2.502e-1
3.520e+1, -2.489e-1
3.530e+1, -2.476e-1
3.540e+1, -2.462e-1
3.550e+1, -2.449e-1
3.560e+1, -2.435e-1
3.570e+1, -2.422e-1
3.580e+1, -2.409e-1
3.590e+1, -2.395e-1
3.600e+1, -2.382e-1
3.610e+1, -2.368e-1
3.620e+1, -2.355e-1
3.630e+1, -2.341e-1
3.640e+1, -2.328e-1
3.650e+1, -2.314e-1
3.660e+1, -2.300e-1
3.670e+1, -2.287e-1
3.680e+1, -2.273e-1
3.690e+1, -2.260e-1
3.700e+1, -2.246e-1
3.710e+1, -2.232e-1
3.720e+1, -2.219e-1
3.730e+1, -2.205e-1
3.740e+1, -2.191e-1
3.750e+1, -2.178e-1
3.760e+1, -2.164e-1
3.770e+1, -2.150e-1
3.780e+1, -2.137e-1
3.790e+1, -2.123e-1
3.800e+1, -2.109e-1
3.810e+1, -2.095e-1
3.820e+1, -2.082e-1
3.830e+1, -2.068e-1
3.840e+1, -2.054e-1
3.850e+1, -2.040e-1
3.860e+1, -2.026e-1
3.870e+1, -2.013e-1
3.880e+1, -1.999e-1
3.890e+1, -1.985e-1
3.900e+1, -1.971e-1
3.910e+1, -1.957e-1
3.920e+1, -1.943e-1
3.930e+1, -1.929e-1
3.940e+1, -1.915e-1
3.950e+1, -1.901e-1
3.960e+1, -1.887e-1
3.970e+1, -1.873e-1
3.980e+1, -1.860e-1
3.990e+1, -1.846e-1
4.000e+1, -1.832e-1
4.010e+1, -1.818e-1
4.020e+1, -1.803e-1
4.030e+1, -1.789e-1
4.040e+1, -1.775e-1
4.050e+1, -1.761e-1
4.060e+1, -1.747e-1
4.070e+1, -1.733e-1
4.080e+1, -1.719e-1
4.090e+1, -1.705e-1
4.100e+1, -1.691e-1
4.110e+1, -1.677e-1
4.120e+1, -1.663e-1
4.130e+1, -1.648e-1
4.140e+1, -1.634e-1
4.150e+1, -1.620e-1
4.160e+1, -1.606e-1
4.170e+1, -1.591e-1
4.180e+1, -1.577e-1
4.190e+1, -1.562e-1
4.200e+1, -1.548e-1
4.210e+1, -1.534e-1
4.220e+1, -1.519e-1
4.230e+1, -1.505e-1
4.240e+1, -1.490e-1
4.250e+1, -1.476e-1
4.260e+1, -1.461e-1
4.270e+1, -1.447e-1
4.280e+1, -1.432e-1
4.290e+1, -1.418e-1
4.300e+1, -1.403e-1
4.310e+1, -1.389e-1
4.320e+1, -1.374e-1
4.330e+1, -1.360e-1
4.340e+1, -1.345e-1
4.350e+1, -1.330e-1
4.360e+1, -1.316e-1
4.370e+1, -1.301e-1
4.380e+1, -1.286e-1
4.390e+1, -1.272e-1
4.400e+1, -1.257e-1
4.410e+1, -1.242e-1
4.420e+1, -1.227e-1
4.430e+1, -1.213e-1
4.440e+1, -1.198e-1
4.450e+1, -1.184e-1
4.460e+1, -1.169e-1
4.470e+1, -1.154e-1
4.480e+1, -1.140e-1
4.490e+1, -1.125e-1
4.500e+1, -1.111e-1
4.510e+1, -1.096e-1
4.520e+1, -1.082e-1
4.530e+1, -1.068e-1
4.540e+1, -1.053e-1
4.550e+1, -1.039e-1
4.560e+1, -1.025e-1
4.570e+1, -1.010e-1
4.580e+1, -9.960e-2
4.590e+1, -9.819e-2
4.600e+1, -9.677e-2
4.610e+1, -9.534e-2
4.620e+1, -9.390e-2
4.630e+1, -9.247e-2
4.640e+1, -9.104e-2
4.650e+1, -8.959e-2
4.660e+1, -8.816e-2
4.670e+1, -8.671e-2
4.680e+1, -8.526e-2
4.690e+1, -8.382e-2
4.700e+1, -8.239e-2
4.710e+1, -8.094e-2
4.720e+1, -7.948e-2
4.730e+1, -7.802e-2
4.740e+1, -7.657e-2
4.750e+1, -7.510e-2
4.760e+1, -7.363e-2
4.770e+1, -7.217e-2
4.780e+1, -7.069e-2
4.790e+1, -6.922e-2
4.800e+1, -6.774e-2
4.810e+1, -6.627e-2
4.820e+1, -6.478e-2
4.830e+1, -6.328e-2
4.840e+1, -6.177e-2
4.850e+1, -6.028e-2
4.860e+1, -5.877e-2
4.870e+1, -5.726e-2
4.880e+1, -5.575e-2
4.890e+1, -5.421e-2
4.900e+1, -5.268e-2
4.910e+1, -5.115e-2
4.920e+1, -4.962e-2
4.930e+1, -4.808e-2
4.940e+1, -4.651e-2
4.950e+1, -4.496e-2
4.960e+1, -4.340e-2
4.970e+1, -4.182e-2
4.980e+1, -4.025e-2
4.990e+1, -3.867e-2
5.000e+1, -3.708e-2
5.010e+1, -3.550e-2
5.020e+1, -3.393e-2
5.030e+1, -3.234e-2
5.040e+1, -3.075e-2
5.050e+1, -2.916e-2
5.060e+1, -2.758e-2
5.070e+1, -2.599e-2
5.080e+1, -2.440e-2
5.090e+1, -2.280e-2
5.100e+1, -2.121e-2
5.110e+1, -1.962e-2
5.120e+1, -1.803e-2
5.130e+1, -1.645e-2
5.140e+1, -1.485e-2
5.150e+1, -1.327e-2
5.160e+1, -1.168e-2
5.170e+1, -1.009e-2
5.180e+1, -8.514e-3
5.190e+1, -6.923e-3
5.200e+1, -5.342e-3
5.210e+1, -3.765e-3
5.220e+1, -2.183e-3
5.230e+1, -6.117e-4
5.240e+1, 9.670e-4
5.250e+1, 2.532e-3
5.260e+1, 4.111e-3
5.270e+1, 5.680e-3
5.280e+1, 7.243e-3
5.290e+1, 8.812e-3
5.300e+1, 1.036e-2
5.310e+1, 1.191e-2
5.320e+1, 1.346e-2
5.330e+1, 1.500e-2
5.340e+1, 1.656e-2
5.350e+1, 1.811e-2
5.360e+1, 1.966e-2
5.370e+1, 2.121e-2
5.380e+1, 2.274e-2
5.390e+1, 2.428e-2
5.400e+1, 2.581e-2
5.410e+1, 2.733e-2
5.420e+1, 2.885e-2
5.430e+1, 3.036e-2
5.440e+1, 3.189e-2
5.450e+1, 3.341e-2
5.460e+1, 3.492e-2
5.470e+1, 3.644e-2
5.480e+1, 3.795e-2
5.490e+1, 3.945e-2
5.500e+1, 4.096e-2
5.510e+1, 4.246e-2
5.520e+1, 4.394e-2
5.530e+1, 4.542e-2
5.540e+1, 4.691e-2
5.550e+1, 4.840e-2
5.560e+1, 4.987e-2
5.570e+1, 5.135e-2
5.580e+1, 5.283e-2
5.590e+1, 5.429e-2
5.600e+1, 5.576e-2
5.610e+1, 5.723e-2
5.620e+1, 5.868e-2
5.630e+1, 6.013e-2
5.640e+1, 6.158e-2
5.650e+1, 6.303e-2
5.660e+1, 6.448e-2
5.670e+1, 6.592e-2
5.680e+1, 6.736e-2
5.690e+1, 6.880e-2
5.700e+1, 7.023e-2
5.710e+1, 7.167e-2
5.720e+1, 7.309e-2
5.730e+1, 7.451e-2
5.740e+1, 7.591e-2
5.750e+1, 7.732e-2
5.760e+1, 7.872e-2
5.770e+1, 8.013e-2
5.780e+1, 8.151e-2
5.790e+1, 8.290e-2
5.800e+1, 8.429e-2
5.810e+1, 8.567e-2
5.820e+1, 8.705e-2
5.830e+1, 8.842e-2
5.840e+1, 8.979e-2
5.850e+1, 9.115e-2
5.860e+1, 9.251e-2
5.870e+1, 9.386e-2
5.880e+1, 9.522e-2
5.890e+1, 9.655e-2
5.900e+1, 9.789e-2
5.910e+1, 9.923e-2
5.920e+1, 3.481e-2
5.930e+1, -2.428e-3
5.940e+1, -2.590e-2
5.950e+1, -4.430e-2
5.960e+1, -5.973e-2
5.970e+1, -7.312e-2
5.980e+1, -8.496e-2
5.990e+1, -9.567e-2
6.000e+1, -1.055e-1
6.010e+1, -1.146e-1
6.020e+1, -1.231e-1
6.030e+1, -1.309e-1
6.040e+1, -1.384e-1
6.050e+1, -1.457e-1
6.060e+1, -1.522e-1
6.070e+1, -1.584e-1
6.080e+1, -1.642e-1
6.090e+1, -1.699e-1
6.100e+1, -1.754e-1
6.110e+1, -1.807e-1
6.120e+1, -1.859e-1
6.130e+1, -1.908e-1
6.140e+1, -1.956e-1
6.150e+1, -2.003e-1
6.160e+1, -2.048e-1
6.170e+1, -2.093e-1
6.180e+1, -2.136e-1
6.190e+1, -2.178e-1
6.200e+1, -2.219e-1
6.210e+1, -2.259e-1
6.220e+1, -2.298e-1
6.230e+1, -2.336e-1
6.240e+1, -2.374e-1
6.250e+1, -2.411e-1
6.260e+1, -2.447e-1
6.270e+1, -2.483e-1
6.280e+1, -2.517e-1
6.290e+1, -2.550e-1
6.300e+1, -2.583e-1
6.310e+1, -2.616e-1
6.320e+1, -2.648e-1
6.330e+1, -2.679e-1
6.340e+1, -2.711e-1
6.350e+1, -2.742e-1
6.360e+1, -2.772e-1
6.370e+1, -2.801e-1
6.380e+1, -2.830e-1
6.390e+1, -2.858e-1
6.400e+1, -2.886e-1
6.410e+1, -2.914e-1
6.420e+1, -2.942e-1
6.430e+1, -2.969e-1
6.440e+1, -2.996e-1
6.450e+1, -3.023e-1
6.460e+1, -3.049e-1
6.470e+1, -3.075e-1
6.480e+1, -3.101e-1
6.490e+1, -3.126e-1
6.500e+1, -3.151e-1
6.510e+1, -3.176e-1
6.520e+1, -3.200e-1
6.530e+1, -3.225e-1
6.540e+1, -3.249e-1
6.550e+1, -3.272e-1
6.560e+1, -3.296e-1
6.570e+1, -3.319e-1
6.580e+1, -3.342e-1
6.590e+1, -3.365e-1
6.600e+1, -3.388e-1
6.610e+1, -3.410e-1
6.620e+1, -3.432e-1
6.630e+1, -3.454e-1
6.640e+1, -3.476e-1
6.650e+1, -3.498e-1
6.660e+1, -3.519e-1
6.670e+1, -3.540e-1
6.680e+1, -3.562e-1
6.690e+1, -3.582e-1
6.700e+1, -3.603e-1
6.710e+1, -3.624e-1
6.720e+1, -3.644e-1
6.730e+1, -3.664e-1
6.740e+1, -3.684e-1
6.750e+1, -3.704e-1
6.760e+1, -3.724e-1
6.770e+1, -3.744e-1
6.780e+1, -3.763e-1
6.790e+1, -3.783e-1
6.800e+1, -3.802e-1
6.810e+1, -3.821e-1
6.820e+1, -3.840e-1
6.830e+1, -3.859e-1
6.840e+1, -3.878e-1
6.850e+1, -3.896e-1
6.860e+1, -3.915e-1
6.870e+1, -3.933e-1
6.880e+1, -3.951e-1
6.890e+1, -3.970e-1
6.900e+1, -3.987e-1
6.910e+1, -4.005e-1
6.920e+1, -4.023e-1
6.930e+1, -4.041e-1
6.940e+1, -4.059e-1
6.950e+1, -4.076e-1
6.960e+1, -4.094e-1
6.970e+1, -4.111e-1
6.980e+1, -4.128e-1
6.990e+1, -4.145e-1
7.000e+1, -4.162e-1
7.010e+1, -4.179e-1
7.020e+1, -4.196e-1
7.030e+1, -4.213e-1
7.040e+1, -4.230e-1
7.050e+1, -4.246e-1
7.060e+1, -4.263e-1
7.070e+1, -4.279e-1
7.080e+1, -4.295e-1
7.090e+1, -4.312e-1
7.100e+1, -4.328e-1
7.110e+1, -4.344e-1
7.120e+1, -4.360e-1
7.130e+1, -4.376e-1
7.140e+1, -4.392e-1
7.150e+1, -4.408e-1
7.160e+1, -4.424e-1
7.170e+1, -4.439e-1
7.180e+1, -4.455e-1
7.190e+1, -4.471e-1
7.200e+1, -4.486e-1
7.210e+1, -4.502e-1
7.220e+1, -4.517e-1
7.230e+1, -4.532e-1
7.240e+1, -4.548e-1
7.250e+1, -4.563e-1
7.260e+1, -4.578e-1
7.270e+1, -4.593e-1
7.280e+1, -4.608e-1
7.290e+1, -4.623e-1
7.300e+1, -4.638e-1
7.310e+1, -4.653e-1
7.320e+1, -4.668e-1
7.330e+1, -4.683e-1
7.340e+1, -4.698e-1
7.350e+1, -4.712e-1
7.360e+1, -4.727e-1
7.370e+1, -4.742e-1
7.380e+1, -4.756e-1
7.390e+1, -4.771e-1
7.400e+1, -4.785e-1
7.410e+1, -4.800e-1
7.420e+1, -4.814e-1
7.430e+1, -4.828e-1
7.440e+1, -4.843e-1
7.450e+1, -4.857e-1
7.460e+1, -4.871e-1
7.470e+1, -4.886e-1
7.480e+1, -4.900e-1
7.490e+1, -4.914e-1
7.500e+1, -4.928e-1
7.510e+1, -4.942e-1
7.520e+1, -4.956e-1
7.530e+1, -4.970e-1
7.540e+1, -4.984e-1
7.550e+1, -4.997e-1
7.560e+1, -5.011e-1
7.570e+1, -5.025e-1
7.580e+1, -5.039e-1
7.590e+1, -5.052e-1
7.600e+1, -5.066e-1
7.610e+1, -5.080e-1
7.620e+1, -5.093e-1
7.630e+1, -5.107e-1
7.640e+1, -5.120e-1
7.650e+1, -5.134e-1
7.660e+1, -5.147e-1
7.670e+1, -5.161e-1
7.680e+1, -5.174e-1
7.690e+1, -5.187e-1
7.700e+1, -5.201e-1
7.710e+1, -5.214e-1
7.720e+1, -5.227e-1
7.730e+1, -5.241e-1
7.740e+1, -5.254e-1
7.750e+1, -5.267e-1
7.760e+1, -5.280e-1
7.770e+1, -5.293e-1
7.780e+1, -5.307e-1
7.790e+1, -5.320e-1
7.800e+1, -5.333e-1
7.810e+1, -5.346e-1
7.820e+1, -5.359e-1
7.830e+1, -5.372e-1
7.840e+1, -5.385e-1
7.850e+1, -5.398e-1
7.860e+1, -5.411e-1
7.870e+1, -5.424e-1
7.880e+1, -5.437e-1
7.890e+1, -5.449e-1
7.900e+1, -5.462e-1
7.910e+1, -5.475e-1
7.920e+1, -5.488e-1
7.930e+1, -5.501e-1
7.940e+1, -5.513e-1
7.950e+1, -5.526e-1
7.960e+1, -5.539e-1
7.970e+1, -5.551e-1
7.980e+1, -5.564e-1
7.990e+1, -5.577e-1
8.000e+1, -5.589e-1
8.010e+1, -5.602e-1
8.020e+1, -5.615e-1
8.030e+1, -5.627e-1
8.040e+1, -5.640e-1
8.050e+1, -5.652e-1
8.060e+1, -5.665e-1
8.070e+1, -5.677e-1
8.080e+1, -5.690e-1
8.090e+1, -5.702e-1
8.100e+1, -5.714e-1
8.110e+1, -5.727e-1
8.120e+1, -5.739e-1
8.130e+1, -5.752e-1
8.140e+1, -5.764e-1
8.150e+1, -5.776e-1
8.160e+1, -5.789e-1
8.170e+1, -5.801e-1
8.180e+1, -5.813e-1
8.190e+1, -5.825e-1
8.200e+1, -5.838e-1
8.210e+1, -5.850e-1
8.220e+1, -5.862e-1
8.230e+1, -5.874e-1
8.240e+1, -5.886e-1
8.250e+1, -5.899e-1
8.260e+1, -5.911e-1
8.270e+1, -5.923e-1
8.280e+1, -5.935e-1
8.290e+1, -5.947e-1
8.300e+1, -5.959e-1
8.310e+1, -5.972e-1
8.320e+1, -5.984e-1
8.330e+1, -5.996e-1
8.340e+1, -6.008e-1
8.350e+1, -6.020e-1
8.360e+1, -6.032e-1
8.370e+1, -6.044e-1
8.380e+1, -6.056e-1
8.390e+1, -6.068e-1
8.400e+1, -6.080e-1
8.410e+1, -6.092e-1
8.420e+1, -6.104e-1
8.430e+1, -6.116e-1
8.440e+1, -6.128e-1
8.450e+1, -6.140e-1
8.460e+1, -6.152e-1
8.470e+1, -6.164e-1
8.480e+1, -6.175e-1
8.490e+1, -6.187e-1
8.500e+1, -6.199e-1
8.510e+1, -6.211e-1
8.520e+1, -6.223e-1
8.530e+1, -6.235e-1
8.540e+1, -6.247e-1
8.550e+1, -6.258e-1
8.560e+1, -6.270e-1
8.570e+1, -6.282e-1
8.580e+1, -6.294e-1
8.590e+1, -6.306e-1
8.600e+1, -6.317e-1
8.610e+1, -6.329e-1
8.620e+1, -6.341e-1
8.630e+1, -6.353e-1
8.640e+1, -6.364e-1
8.650e+1, -6.376e-1
8.660e+1, -6.388e-1
8.670e+1, -6.400e-1
8.680e+1, -6.411e-1
8.690e+1, -6.423e-1
8.700e+1, -6.435e-1
8.710e+1, -6.446e-1
8.720e+1, -6.458e-1
8.730e+1, -6.470e-1
8.740e+1, -6.481e-1
8.750e+1, -6.493e-1
8.760e+1, -6.504e-1
8.770e+1, -6.516e-1
8.780e+1, -6.528e-1
8.790e+1, -6.539e-1
8.800e+1, -6.551e-1
8.810e+1, -6.562e-1
8.820e+1, -6.574e-1
8.830e+1, -6.586e-1
8.840e+1, -6.597e-1
8.850e+1, -6.609e-1
8.860e+1, -6.620e-1
8.870e+1, -6.632e-1
8.880e+1, -6.643e-1
8.890e+1, -6.655e-1
8.900e+1, -6.666e-1
8.910e+1, -6.678e-1
8.920e+1, -6.689e-1
8.930e+1, -6.701e-1
8.940e+1, -6.712e-1
8.950e+1, -6.724e-1
8.960e+1, -6.735e-1
8.970e+1, -6.747e-1
8.980e+1, -6.758e-1
8.990e+1, -6.770e-1
9.000e+1, -6.781e-1
9.010e+1, -6.792e-1
9.020e+1, -6.804e-1
9.030e+1, -6.815e-1
9.040e+1, -6.827e-1
9.050e+1, -6.838e-1
9.060e+1, -6.849e-1
9.070e+1, -6.861e-1
9.080e+1, -6.872e-1
9.090e+1, -6.884e-1
9.100e+1, -6.895e-1
9.110e+1, -6.906e-1
9.120e+1, -6.918e-1
9.130e+1, -6.929e-1
9.140e+1, -6.941e-1
9.150e+1, -6.952e-1
9.160e+1, -6.963e-1
9.170e+1, -6.974e-1
9.180e+1, -6.986e-1
9.190e+1, -6.997e-1
9.200e+1, -7.009e-1
9.210e+1, -7.020e-1
9.220e+1, -7.031e-1
9.230e+1, -7.043e-1
9.240e+1, -7.054e-1
9.250e+1, -7.065e-1
9.260e+1, -7.077e-1
9.270e+1, -7.088e-1
9.280e+1, -7.100e-1
9.290e+1, -7.111e-1
9.300e+1, -7.122e-1
9.310e+1, -7.134e-1
9.320e+1, -7.145e-1
9.330e+1, -7.156e-1
9.340e+1, -7.168e-1
9.350e+1, -7.179e-1
9.360e+1, -7.190e-1
9.370e+1, -7.202e-1
9.380e+1, -7.213e-1
9.390e+1, -7.224e-1
9.400e+1, -7.236e-1
9.410e+1, -7.247e-1
9.420e+1, -7.259e-1
9.430e+1, -7.270e-1
9.440e+1, -7.281e-1
9.450e+1, -7.292e-1
9.460e+1, -7.304e-1
9.470e+1, -7.315e-1
9.480e+1, -7.326e-1
9.490e+1, -7.338e-1
9.500e+1, -7.349e-1
9.510e+1, -7.361e-1
9.520e+1, -7.372e-1
9.530e+1, -7.383e-1
9.540e+1, -7.395e-1
9.550e+1, -7.406e-1
9.560e+1, -7.417e-1
9.570e+1, -7.429e-1
9.580e+1, -7.440e-1
9.590e+1, -7.451e-1
9.600e+1, -7.463e-1
9.610e+1, -7.474e-1
9.620e+1, -7.485e-1
9.630e+1, -7.497e-1
9.640e+1, -7.508e-1
9.650e+1, -7.519e-1
9.660e+1, -7.531e-1
9.670e+1, -7.542e-1
9.680e+1, -7.553e-1
9.690e+1, -7.565e-1
9.700e+1, -7.576e-1
9.710e+1, -7.587e-1
9.720e+1, -7.599e-1
9.730e+1, -7.610e-1
9.740e+1, -7.621e-1
9.750e+1, -7.633e-1
9.760e+1, -7.644e-1
9.770e+1, -7.656e-1
9.780e+1, -7.667e-1
9.790e+1, -7.678e-1
9.800e+1, -7.690e-1
9.810e+1, -7.701e-1
9.820e+1, -7.712e-1
9.830e+1, -7.724e-1
9.840e+1, -7.735e-1
9.850e+1, -7.747e-1
9.860e+1, -7.758e-1
9.870e+1, -7.769e-1
9.880e+1, -7.780e-1
9.890e+1, -7.792e-1
9.900e+1, -7.803e-1
9.910e+1, -7.814e-1
9.920e+1, -7.826e-1
9.930e+1, -7.837e-1
9.940e+1, -7.848e-1
9.950e+1, -7.860e-1
9.960e+1, -7.871e-1
9.970e+1, -7.882e-1
9.980e+1, -7.893e-1
9.990e+1, -7.905e-1
1.000e+2, -7.916e-1
1.001e+2, -7.927e-1
1.002e+2, -7.938e-1
1.003e+2, -7.950e-1
1.004e+2, -7.961e-1
1.005e+2, -7.972e-1
1.006e+2, -7.984e-1
1.007e+2, -7.995e-1
1.008e+2, -8.006e-1
1.009e+2, -8.017e-1
1.010e+2, -8.029e-1
1.011e+2, -8.040e-1
1.012e+2, -8.051e-1
1.013e+2, -8.063e-1
1.014e+2, -8.074e-1
1.015e+2, -8.085e-1
1.016e+2, -8.096e-1
1.017e+2, -8.107e-1
1.018e+2, -8.119e-1
1.019e+2, -8.130e-1
1.020e+2, -8.141e-1
1.021e+2, -8.153e-1
1.022e+2, -8.164e-1
1.023e+2, -8.175e-1
1.024e+2, -8.187e-1
1.025e+2, -8.198e-1
1.026e+2, -8.209e-1
1.027e+2, -8.220e-1
1.028e+2, -8.232e-1
1.029e+2, -8.243e-1
1.030e+2, -8.254e-1
1.031e+2, -8.265e-1
1.032e+2, -8.277e-1
1.033e+2, -8.288e-1
1.034e+2, -8.299e-1
1.035e+2, -8.310e-1
1.036e+2, -8.322e-1
1.037e+2, -8.333e-1
1.038e+2, -8.344e-1
1.039e+2, -8.356e-1
1.040e+2, -8.367e-1
1.041e+2, -8.378e-1
1.042e+2, -8.389e-1
1.043e+2, -8.400e-1
1.044e+2, -8.412e-1
1.045e+2, -8.423e-1
1.046e+2, -8.434e-1
1.047e+2, -8.445e-1
1.048e+2, -8.457e-1
1.049e+2, -8.468e-1
1.050e+2, -8.479e-1
1.051e+2, -8.490e-1
1.052e+2, -8.502e-1
1.053e+2, -8.513e-1
1.054e+2, -8.524e-1
1.055e+2, -8.536e-1
1.056e+2, -8.547e-1
1.057e+2, -8.558e-1
1.058e+2, -8.569e-1
1.059e+2, -8.581e-1
1.060e+2, -8.592e-1
1.061e+2, -8.603e-1
1.062e+2, -8.614e-1
1.063e+2, -8.625e-1
1.064e+2, -8.636e-1
1.065e+2, -8.648e-1
1.066e+2, -8.659e-1
1.067e+2, -8.670e-1
1.068e+2, -8.681e-1
1.069e+2, -8.692e-1
1.070e+2, -8.703e-1
1.071e+2, -8.714e-1
1.072e+2, -8.725e-1
1.073e+2, -8.737e-1
1.074e+2, -8.748e-1
1.075e+2, -8.759e-1
1.076e+2, -8.770e-1
1.077e+2, -8.781e-1
1.078e+2, -8.792e-1
1.079e+2, -8.803e-1
1.080e+2, -8.814e-1
1.081e+2, -8.825e-1
1.082e+2, -8.836e-1
1.083e+2, -8.847e-1
1.084e+2, -8.858e-1
1.085e+2, -8.869e-1
1.086e+2, -8.880e-1
1.087e+2, -8.891e-1
1.088e+2, -8.902e-1
1.089e+2, -8.913e-1
1.090e+2, -8.924e-1
1.091e+2, -8.935e-1
1.092e+2, -8.946e-1
1.093e+2, -8.956e-1
1.094e+2, -8.967e-1
1.095e+2, -8.978e-1
1.096e+2, -8.989e-1
1.097e+2, -9.000e-1
1.098e+2, -8.407e-1
1.099e+2, -8.151e-1
1.100e+2, -7.989e-1
1.101e+2, -7.856e-1
1.102e+2, -7.751e-1
1.103e+2, -7.660e-1
1.104e+2, -7.578e-1
1.105e+2, -7.503e-1
1.106e+2, -7.434e-1
1.107e+2, -7.370e-1
1.108e+2, -7.310e-1
1.109e+2, -7.254e-1
1.110e+2, -7.200e-1
1.111e+2, -7.149e-1
1.112e+2, -7.101e-1
1.113e+2, -7.054e-1
1.114e+2, -7.009e-1
1.115e+2, -6.966e-1
1.116e+2, -6.925e-1
1.117e+2, -6.885e-1
1.118e+2, -6.846e-1
1.119e+2, -6.808e-1
1.120e+2, -6.772e-1
1.121e+2, -6.736e-1
1.122e+2, -6.701e-1
1.123e+2, -6.667e-1
1.124e+2, -6.633e-1
1.125e+2, -6.600e-1
1.126e+2, -6.569e-1
1.127e+2, -6.539e-1
1.128e+2, -6.509e-1
1.129e+2, -6.480e-1
1.130e+2, -6.451e-1
1.131e+2, -6.423e-1
1.132e+2, -6.395e-1
1.133e+2, -6.367e-1
1.134e+2, -6.340e-1
1.135e+2, -6.312e-1
1.136e+2, -6.286e-1
1.137e+2, -6.261e-1
1.138e+2, -6.235e-1
1.139e+2, -6.211e-1
1.140e+2, -6.186e-1
1.141e+2, -6.163e-1
1.142e+2, -6.139e-1
1.143e+2, -6.116e-1
1.144e+2, -6.092e-1
1.145e+2, -6.069e-1
1.146e+2, -6.047e-1
1.147e+2, -6.024e-1
1.148e+2, -6.002e-1
1.149e+2, -5.980e-1
1.150e+2, -5.958e-1
1.151e+2, -5.936e-1
1.152e+2, -5.915e-1
1.153e+2, -5.894e-1
1.154e+2, -5.873e-1
1.155e+2, -5.852e-1
1.156e+2, -5.831e-1
1.157e+2, -5.811e-1
1.158e+2, -5.791e-1
1.159e+2, -5.771e-1
1.160e+2, -5.751e-1
1.161e+2, -5.731e-1
1.162e+2, -5.711e-1
1.163e+2, -5.692e-1
1.164e+2, -5.673e-1
1.165e+2, -5.653e-1
1.166e+2, -5.635e-1
1.167e+2, -5.616e-1
1.168e+2, -5.597e-1
1.169e+2, -5.578e-1
1.170e+2, -5.560e-1
1.171e+2, -5.542e-1
1.172e+2, -5.524e-1
1.173e+2, -5.505e-1
1.174e+2, -5.487e-1
1.175e+2, -5.470e-1
1.176e+2, -5.452e-1
1.177e+2, -5.434e-1
1.178e+2, -5.417e-1
1.179e+2, -5.399e-1
1.180e+2, -5.382e-1
1.181e+2, -5.365e-1
1.182e+2, -5.348e-1
1.183e+2, -5.330e-1
1.184e+2, -5.313e-1
1.185e+2, -5.296e-1
1.186e+2, -5.280e-1
1.187e+2, -5.263e-1
1.188e+2, -5.246e-1
1.189e+2, -5.230e-1
1.190e+2, -5.213e-1
1.191e+2, -5.197e-1
1.192e+2, -5.180e-1
1.193e+2, -5.164e-1
1.194e+2, -5.148e-1
1.195e+2, -5.131e-1
1.196e+2, -5.115e-1
1.197e+2, -5.099e-1
1.198e+2, -5.083e-1
1.199e+2, -5.067e-1
1.200e+2, -5.051e-1
1.201e+2, -5.035e-1
1.202e+2, -5.020e-1
1.203e+2, -5.004e-1
1.204e+2, -4.988e-1
1.205e+2, -4.973e-1
1.206e+2, -4.957e-1
1.207e+2, -4.941e-1
1.208e+2, -4.926e-1
1.209e+2, -4.911e-1
1.210e+2, -4.895e-1
1.211e+2, -4.880e-1
1.212e+2, -4.865e-1
1.213e+2, -4.849e-1
1.214e+2, -4.834e-1
1.215e+2, -4.819e-1
1.216e+2, -4.804e-1
1.217e+2, -4.789e-1
1.218e+2, -4.774e-1
1.219e+2, -4.759e-1
1.220e+2, -4.744e-1
1.221e+2, -4.729e-1
1.222e+2, -4.714e-1
1.223e+2, -4.699e-1
1.224e+2, -4.685e-1
1.225e+2, -4.670e-1
1.226e+2, -4.655e-1
1.227e+2, -4.640e-1
1.228e+2, -4.626e-1
1.229e+2, -4.611e-1
1.230e+2, -4.597e-1
1.231e+2, -4.582e-1
1.232e+2, -4.568e-1
1.233e+2, -4.553e-1
1.234e+2, -4.539e-1
1.235e+2, -4.524e-1
1.236e+2, -4.510e-1
1.237e+2, -4.496e-1
1.238e+2, -4.481e-1
1.239e+2, -4.467e-1
1.240e+2, -4.453e-1
1.241e+2, -4.439e-1
1.242e+2, -4.425e-1
1.243e+2, -4.410e-1
1.244e+2, -4.396e-1
1.245e+2, -4.382e-1
1.246e+2, -4.368e-1
1.247e+2, -4.354e-1
1.248e+2, -4.340e-1
1.249e+2, -4.326e-1
1.250e+2, -4.312e-1
1.251e+2, -4.298e-1
1.252e+2, -4.284e-1
1.253e+2, -4.270e-1
1.254e+2, -4.256e-1
1.255e+2, -4.243e-1
1.256e+2, -4.229e-1
1.257e+2, -4.215e-1
1.258e+2, -4.201e-1
1.259e+2, -4.187e-1
1.260e+2, -4.174e-1
1.261e+2, -4.160e-1
1.262e+2, -4.146e-1
1.263e+2, -4.133e-1
1.264e+2, -4.119e-1
1.265e+2, -4.105e-1
1.266e+2, -4.092e-1
1.267e+2, -4.078e-1
1.268e+2, -4.064e-1
1.269e+2, -4.051e-1
1.270e+2, -4.037e-1
1.271e+2, -4.024e-1
1.272e+2, -4.010e-1
1.273e+2, -3.997e-1
1.274e+2, -3.983e-1
1.275e+2, -3.970e-1
1.276e+2, -3.956e-1
1.277e+2, -3.943e-1
1.278e+2, -3.929e-1
1.279e+2, -3.916e-1
1.280e+2, -3.902e-1
1.281e+2, -3.889e-1
1.282e+2, -3.875e-1
1.283e+2, -3.862e-1
1.284e+2, -3.848e-1
1.285e+2, -3.835e-1
1.286e+2, -3.821e-1
1.287e+2, -3.808e-1
1.288e+2, -3.794e-1
1.289e+2, -3.781e-1
1.290e+2, -3.768e-1
1.291e+2, -3.754e-1
1.292e+2, -3.741e-1
1.293e+2, -3.727e-1
1.294e+2, -3.714e-1
1.295e+2, -3.700e-1
1.296e+2, -3.687e-1
1.297e+2, -3.674e-1
1.298e+2, -3.660e-1
1.299e+2, -3.647e-1
1.300e+2, -3.634e-1
1.301e+2, -3.620e-1
1.302e+2, -3.607e-1
1.303e+2, -3.593e-1
1.304e+2, -3.580e-1
1.305e+2, -3.566e-1
1.306e+2, -3.553e-1
1.307e+2, -3.539e-1
1.308e+2, -3.526e-1
1.309e+2, -3.513e-1
1.310e+2, -3.499e-1
1.311e+2, -3.486e-1
1.312e+2, -3.472e-1
1.313e+2, -3.459e-1
1.314e+2, -3.445e-1
1.315e+2, -3.432e-1
1.316e+2, -3.418e-1
1.317e+2, -3.405e-1
1.318e+2, -3.391e-1
1.319e+2, -3.377e-1
1.320e+2, -3.364e-1
1.321e+2, -3.350e-1
1.322e+2, -3.337e-1
1.323e+2, -3.323e-1
1.324e+2, -3.310e-1
1.325e+2, -3.296e-1
1.326e+2, -3.282e-1
1.327e+2, -3.269e-1
1.328e+2, -3.255e-1
1.329e+2, -3.241e-1
1.330e+2, -3.228e-1
1.331e+2, -3.214e-1
1.332e+2, -3.200e-1
1.333e+2, -3.186e-1
1.334e+2, -3.173e-1
1.335e+2, -3.159e-1
1.336e+2, -3.145e-1
1.337e+2, -3.132e-1
1.338e+2, -3.118e-1
1.339e+2, -3.104e-1
1.340e+2, -3.090e-1
1.341e+2, -3.077e-1
1.342e+2, -3.063e-1
1.343e+2, -3.049e-1
1.344e+2, -3.035e-1
1.345e+2, -3.022e-1
1.346e+2, -3.008e-1
1.347e+2, -2.994e-1
1.348e+2, -2.980e-1
1.349e+2, -2.966e-1
1.350e+2, -2.952e-1
1.351e+2, -2.938e-1
1.352e+2, -2.925e-1
1.353e+2, -2.911e-1
1.354e+2, -2.897e-1
1.355e+2, -2.883e-1
1.356e+2, -2.869e-1
1.357e+2, -2.855e-1
1.358e+2, -2.841e-1
1.359e+2, -2.827e-1
1.360e+2, -2.813e-1
1.361e+2, -2.799e-1
1.362e+2, -2.785e-1
1.363e+2, -2.771e-1
1.364e+2, -2.757e-1
1.365e+2, -2.743e-1
1.366e+2, -2.729e-1
1.367e+2, -2.715e-1
1.368e+2, -2.701e-1
1.369e+2, -2.687e-1
1.370e+2, -2.673e-1
1.371e+2, -2.658e-1
1.372e+2, -2.644e-1
1.373e+2, -2.630e-1
1.374e+2, -2.616e-1
1.375e+2, -2.602e-1
1.376e+2, -2.587e-1
1.377e+2, -2.573e-1
1.378e+2, -2.559e-1
1.379e+2, -2.545e-1
1.380e+2, -2.531e-1
1.381e+2, -2.516e-1
1.382e+2, -2.502e-1
1.383e+2, -2.488e-1
1.384e+2, -2.473e-1
1.385e+2, -2.459e-1
1.386e+2, -2.445e-1
1.387e+2, -2.430e-1
1.388e+2, -2.416e-1
1.389e+2, -2.402e-1
1.390e+2, -2.387e-1
1.391e+2, -2.373e-1
1.392e+2, -2.358e-1
1.393e+2, -2.344e-1
1.394e+2, -2.329e-1
1.395e+2, -2.314e-1
1.396e+2, -2.300e-1
1.397e+2, -2.285e-1
1.398e+2, -2.271e-1
1.399e+2, -2.256e-1
1.400e+2, -2.242e-1
1.401e+2, -2.227e-1
1.402e+2, -2.212e-1
1.403e+2, -2.198e-1
1.404e+2, -2.183e-1
1.405e+2, -2.168e-1
1.406e+2, -2.153e-1
1.407e+2, -2.139e-1
1.408e+2, -2.124e-1
1.409e+2, -2.109e-1
1.410e+2, -2.094e-1
1.411e+2, -2.079e-1
1.412e+2, -2.065e-1
1.413e+2, -2.050e-1
1.414e+2, -2.035e-1
1.415e+2, -2.020e-1
1.416e+2, -2.005e-1
1.417e+2, -1.990e-1
1.418e+2, -1.975e-1
1.419e+2, -1.960e-1
1.420e+2, -1.945e-1
1.421e+2, -1.930e-1
1.422e+2, -1.915e-1
1.423e+2, -1.900e-1
1.424e+2, -1.885e-1
1.425e+2, -1.870e-1
1.426e+2, -1.855e-1
1.427e+2, -1.839e-1
1.428e+2, -1.824e-1
1.429e+2, -1.809e-1
1.430e+2, -1.794e-1
1.431e+2, -1.778e-1
1.432e+2, -1.763e-1
1.433e+2, -1.748e-1
1.434e+2, -1.733e-1
1.435e+2, -1.717e-1
1.436e+2, -1.702e-1
1.437e+2, -1.687e-1
1.438e+2, -1.671e-1
1.439e+2, -1.656e-1
1.440e+2, -1.641e-1
1.441e+2, -1.625e-1
1.442e+2, -1.610e-1
1.443e+2, -1.595e-1
1.444e+2, -1.579e-1
1.445e+2, -1.564e-1
1.446e+2, -1.548e-1
1.447e+2, -1.533e-1
1.448e+2, -1.517e-1
1.449e+2, -1.502e-1
1.450e+2, -1.486e-1
1.451e+2, -1.471e-1
1.452e+2, -1.455e-1
1.453e+2, -1.440e-1
1.454e+2, -1.425e-1
1.455e+2, -1.409e-1
1.456e+2, -1.393e-1
1.457e+2, -1.378e-1
1.458e+2, -1.362e-1
1.459e+2, -1.347e-1
1.460e+2, -1.331e-1
1.461e+2, -1.316e-1
1.462e+2, -1.300e-1
1.463e+2, -1.285e-1
1.464e+2, -1.269e-1
1.465e+2, -1.254e-1
1.466e+2, -1.238e-1
1.467e+2, -1.223e-1
1.468e+2, -1.207e-1
1.469e+2, -1.192e-1
1.470e+2, -1.176e-1
1.471e+2, -1.161e-1
1.472e+2, -1.146e-1
1.473e+2, -1.131e-1
1.474e+2, -1.115e-1
1.475e+2, -1.100e-1
1.476e+2, -1.085e-1
1.477e+2, -1.069e-1
1.478e+2, -1.054e-1
1.479e+2, -1.039e-1
1.480e+2, -1.023e-1
1.481e+2, -1.008e-1
1.482e+2, -9.923e-2
1.483e+2, -9.770e-2
1.484e+2, -9.616e-2
1.485e+2, -9.462e-2
1.486e+2, -9.307e-2
1.487e+2, -9.152e-2
1.488e+2, -8.998e-2
1.489e+2, -8.843e-2
1.490e+2, -8.688e-2
1.491e+2, -8.533e-2
1.492e+2, -8.378e-2
1.493e+2, -8.224e-2
1.494e+2, -8.069e-2
1.495e+2, -7.913e-2
1.496e+2, -7.757e-2
1.497e+2, -7.601e-2
1.498e+2, -7.444e-2
1.499e+2, -7.288e-2
1.500e+2, -7.131e-2
1.501e+2, -6.972e-2
1.502e+2, -6.815e-2
1.503e+2, -6.658e-2
1.504e+2, -6.500e-2
1.505e+2, -6.341e-2
1.506e+2, -6.181e-2
1.507e+2, -6.021e-2
1.508e+2, -5.860e-2
1.509e+2, -5.699e-2
1.510e+2, -5.537e-2
1.511e+2, -5.374e-2
1.512e+2, -5.211e-2
1.513e+2, -5.048e-2
1.514e+2, -4.884e-2
1.515e+2, -4.718e-2
1.516e+2, -4.552e-2
1.517e+2, -4.385e-2
1.518e+2, -4.216e-2
1.519e+2, -4.049e-2
1.520e+2, -3.879e-2
1.521e+2, -3.710e-2
1.522e+2, -3.541e-2
1.523e+2, -3.372e-2
1.524e+2, -3.203e-2
1.525e+2, -3.033e-2
1.526e+2, -2.863e-2
1.527e+2, -2.693e-2
1.528e+2, -2.524e-2
1.529e+2, -2.353e-2
1.530e+2, -2.182e-2
1.531e+2, -2.012e-2
1.532e+2, -1.843e-2
1.533e+2, -1.673e-2
1.534e+2, -1.503e-2
1.535e+2, -1.333e-2
1.536e+2, -1.163e-2
1.537e+2, -9.944e-3
1.538e+2, -8.255e-3
1.539e+2, -6.554e-3
1.540e+2, -4.868e-3
1.541e+2, -3.190e-3
1.542e+2, -1.512e-3
1.543e+2, 1.734e-4
1.544e+2, 1.854e-3
1.545e+2, 3.532e-3
1.546e+2, 5.214e-3
1.547e+2, 6.883e-3
1.548e+2, 8.559e-3
1.549e+2, 1.022e-2
1.550e+2, 1.188e-2
1.551e+2, 1.354e-2
1.552e+2, 1.520e-2
1.553e+2, 1.686e-2
1.554e+2, 1.851e-2
1.555e+2, 2.016e-2
1.556e+2, 2.180e-2
1.557e+2, 2.344e-2
1.558e+2, 2.508e-2
1.559e+2, 2.671e-2
1.560e+2, 2.833e-2
1.561e+2, 2.995e-2
1.562e+2, 3.158e-2
1.563e+2, 3.321e-2
1.564e+2, 3.482e-2
1.565e+2, 3.644e-2
1.566e+2, 3.805e-2
1.567e+2, 3.966e-2
1.568e+2, 4.126e-2
1.569e+2, 4.285e-2
1.570e+2, 4.444e-2
1.571e+2, 4.603e-2
1.572e+2, 4.761e-2
1.573e+2, 4.920e-2
1.574e+2, 5.078e-2
1.575e+2, 5.236e-2
1.576e+2, 5.392e-2
1.577e+2, 5.549e-2
1.578e+2, 5.705e-2
1.579e+2, 5.860e-2
1.580e+2, 6.014e-2
1.581e+2, 6.168e-2
1.582e+2, 6.322e-2
1.583e+2, 6.476e-2
1.584e+2, 6.629e-2
1.585e+2, 6.783e-2
1.586e+2, 6.935e-2
1.587e+2, 7.087e-2
1.588e+2, 7.239e-2
1.589e+2, 7.390e-2
1.590e+2, 7.539e-2
1.591e+2, 7.689e-2
1.592e+2, 7.838e-2
1.593e+2, 7.987e-2
1.594e+2, 8.135e-2
1.595e+2, 8.282e-2
1.596e+2, 8.429e-2
1.597e+2, 8.576e-2
1.598e+2, 8.723e-2
1.599e+2, 8.867e-2
1.600e+2, 9.011e-2
1.601e+2, 9.154e-2
1.602e+2, 9.296e-2
1.603e+2, 9.438e-2
1.604e+2, 9.580e-2
1.605e+2, 9.720e-2
1.606e+2, 9.861e-2
1.607e+2, 3.413e-2
1.608e+2, -3.267e-3
1.609e+2, -2.683e-2
1.610e+2, -4.529e-2
1.611e+2, -6.076e-2
1.612e+2, -7.416e-2
1.613e+2, -8.602e-2
1.614e+2, -9.671e-2
1.615e+2, -1.065e-1
1.616e+2, -1.156e-1
1.617e+2, -1.241e-1
1.618e+2, -1.319e-1
1.619e+2, -1.393e-1
1.620e+2, -1.467e-1
1.621e+2, -1.532e-1
1.622e+2, -1.593e-1
1.623e+2, -1.652e-1
1.624e+2, -1.708e-1
1.625e+2, -1.763e-1
1.626e+2, -1.816e-1
1.627e+2, -1.867e-1
1.628e+2, -1.916e-1
1.629e+2, -1.964e-1
1.630e+2, -2.011e-1
1.631e+2, -2.056e-1
1.632e+2, -2.100e-1
1.633e+2, -2.143e-1
1.634e+2, -2.185e-1
1.635e+2, -2.225e-1
1.636e+2, -2.265e-1
1.637e+2, -2.304e-1
1.638e+2, -2.343e-1
1.639e+2, -2.380e-1
1.640e+2, -2.417e-1
1.641e+2, -2.453e-1
1.642e+2, -2.488e-1
1.643e+2, -2.522e-1
1.644e+2, -2.555e-1
1.645e+2, -2.588e-1
1.646e+2, -2.620e-1
1.647e+2, -2.652e-1
1.648e+2, -2.684e-1
1.649e+2, -2.715e-1
1.650e+2, -2.746e-1
1.651e+2, -2.775e-1
1.652e+2, -2.804e-1
1.653e+2, -2.833e-1
1.654e+2, -2.862e-1
1.655e+2, -2.890e-1
1.656e+2, -2.917e-1
1.657e+2, -2.945e-1
1.658e+2, -2.972e-1
1.659e+2, -2.999e-1
1.660e+2, -3.025e-1
1.661e+2, -3.051e-1
1.662e+2, -3.077e-1
1.663e+2, -3.103e-1
1.664e+2, -3.128e-1
1.665e+2, -3.153e-1
1.666e+2, -3.178e-1
1.667e+2, -3.202e-1
1.668e+2, -3.226e-1
1.669e+2, -3.250e-1
1.670e+2, -3.274e-1
1.671e+2, -3.297e-1
1.672e+2, -3.320e-1
1.673e+2, -3.343e-1
1.674e+2, -3.366e-1
1.675e+2, -3.388e-1
1.676e+2, -3.410e-1
1.677e+2, -3.433e-1
1.678e+2, -3.454e-1
1.679e+2, -3.476e-1
1.680e+2, -3.498e-1
1.681e+2, -3.519e-1
1.682e+2, -3.540e-1
1.683e+2, -3.561e-1
1.684e+2, -3.582e-1
1.685e+2, -3.602e-1
1.686e+2, -3.623e-1
1.687e+2, -3.643e-1
1.688e+2, -3.663e-1
1.689e+2, -3.683e-1
1.690e+2, -3.703e-1
1.691e+2, -3.723e-1
1.692e+2, -3.742e-1
1.693e+2, -3.762e-1
1.694e+2, -3.781e-1
1.695e+2, -3.800e-1
1.696e+2, -3.819e-1
1.697e+2, -3.838e-1
1.698e+2, -3.857e-1
1.699e+2, -3.875e-1
1.700e+2, -3.894e-1
1.701e+2, -3.912e-1
1.702e+2, -3.931e-1
1.703e+2, -3.949e-1
1.704e+2, -3.967e-1
1.705e+2, -3.985e-1
1.706e+2, -4.003e-1
1.707e+2, -4.020e-1
1.708e+2, -4.038e-1
1.709e+2, -4.056e-1
1.710e+2, -4.073e-1
1.711e+2, -4.091e-1
1.712e+2, -4.108e-1
1.713e+2, -4.125e-1
1.714e+2, -4.142e-1
1.715e+2, -4.159e-1
1.716e+2, -4.176e-1
1.717e+2, -4.193e-1
1.718e+2, -4.210e-1
1.719e+2, -4.226e-1
1.720e+2, -4.243e-1
1.721e+2, -4.259e-1
1.722e+2, -4.276e-1
1.723e+2, -4.292e-1
1.724e+2, -4.308e-1
1.725e+2, -4.324e-1
1.726e+2, -4.341e-1
1.727e+2, -4.357e-1
1.728e+2, -4.373e-1
1.729e+2, -4.388e-1
1.730e+2, -4.404e-1
1.731e+2, -4.420e-1
1.732e+2, -4.436e-1
1.733e+2, -4.451e-1
1.734e+2, -4.467e-1
1.735e+2, -4.483e-1
1.736e+2, -4.498e-1
1.737e+2, -4.513e-1
1.738e+2, -4.529e-1
1.739e+2, -4.544e-1
1.740e+2, -4.559e-1
1.741e+2, -4.574e-1
1.742e+2, -4.590e-1
1.743e+2, -4.605e-1
1.744e+2, -4.620e-1
1.745e+2, -4.635e-1
1.746e+2, -4.649e-1
1.747e+2, -4.664e-1
1.748e+2, -4.679e-1
1.749e+2, -4.694e-1
1.750e+2, -4.709e-1
1.751e+2, -4.723e-1
1.752e+2, -4.738e-1
1.753e+2, -4.752e-1
1.754e+2, -4.767e-1
1.755e+2, -4.781e-1
1.756e+2, -4.796e-1
1.757e+2, -4.810e-1
1.758e+2, -4.825e-1
1.759e+2, -4.839e-1
1.760e+2, -4.853e-1
1.761e+2, -4.867e-1
1.762e+2, -4.882e-1
1.763e+2, -4.896e-1
1.764e+2, -4.910e-1
1.765e+2, -4.924e-1
1.766e+2, -4.938e-1
1.767e+2, -4.952e-1
1.768e+2, -4.966e-1
1.769e+2, -4.980e-1
1.770e+2, -4.993e-1
1.771e+2, -5.007e-1
1.772e+2, -5.021e-1
1.773e+2, -5.035e-1
1.774e+2, -5.049e-1
1.775e+2, -5.062e-1
1.776e+2, -5.076e-1
1.777e+2, -5.089e-1
1.778e+2, -5.103e-1
1.779e+2, -5.116e-1
1.780e+2, -5.130e-1
1.781e+2, -5.143e-1
1.782e+2, -5.157e-1
1.783e+2, -5.170e-1
1.784e+2, -5.184e-1
1.785e+2, -5.197e-1
1.786e+2, -5.211e-1
1.787e+2, -5.224e-1
1.788e+2, -5.237e-1
1.789e+2, -5.250e-1
1.790e+2, -5.263e-1
1.791e+2, -5.277e-1
1.792e+2, -5.290e-1
1.793e+2, -5.303e-1
1.794e+2, -5.316e-1
1.795e+2, -5.329e-1
1.796e+2, -5.342e-1
1.797e+2, -5.355e-1
1.798e+2, -5.368e-1
1.799e+2, -5.381e-1
1.800e+2, -5.394e-1
1.801e+2, -5.407e-1
1.802e+2, -5.420e-1
1.803e+2, -5.433e-1
1.804e+2, -5.446e-1
1.805e+2, -5.459e-1
1.806e+2, -5.471e-1
1.807e+2, -5.484e-1
1.808e+2, -5.497e-1
1.809e+2, -5.510e-1
1.810e+2, -5.523e-1
1.811e+2, -5.535e-1
1.812e+2, -5.548e-1
1.813e+2, -5.560e-1
1.814e+2, -5.573e-1
1.815e+2, -5.586e-1
1.816e+2, -5.598e-1
1.817e+2, -5.611e-1
1.818e+2, -5.623e-1
1.819e+2, -5.636e-1
1.820e+2, -5.649e-1
1.821e+2, -5.661e-1
1.822e+2, -5.674e-1
1.823e+2, -5.686e-1
1.824e+2, -5.698e-1
1.825e+2, -5.711e-1
1.826e+2, -5.723e-1
1.827e+2, -5.735e-1
1.828e+2, -5.748e-1
1.829e+2, -5.760e-1
1.830e+2, -5.772e-1
1.831e+2, -5.785e-1
1.832e+2, -5.797e-1
1.833e+2, -5.809e-1
1.834e+2, -5.822e-1
1.835e+2, -5.834e-1
1.836e+2, -5.846e-1
1.837e+2, -5.858e-1
1.838e+2, -5.871e-1
1.839e+2, -5.883e-1
1.840e+2, -5.895e-1
1.841e+2, -5.907e-1
1.842e+2, -5.919e-1
1.843e+2, -5.931e-1
1.844e+2, -5.944e-1
1.845e+2, -5.956e-1
1.846e+2, -5.968e-1
1.847e+2, -5.980e-1
1.848e+2, -5.992e-1
1.849e+2, -6.004e-1
1.850e+2, -6.016e-1
1.851e+2, -6.028e-1
1.852e+2, -6.040e-1
1.853e+2, -6.052e-1
1.854e+2, -6.064e-1
1.855e+2, -6.076e-1
1.856e+2, -6.088e-1
1.857e+2, -6.100e-1
1.858e+2, -6.112e-1
1.859e+2, -6.124e-1
1.860e+2, -6.136e-1
1.861e+2, -6.148e-1
1.862e+2, -6.160e-1
1.863e+2, -6.171e-1
1.864e+2, -6.183e-1
1.865e+2, -6.195e-1
1.866e+2, -6.207e-1
1.867e+2, -6.219e-1
1.868e+2, -6.231e-1
1.869e+2, -6.242e-1
1.870e+2, -6.254e-1
1.871e+2, -6.266e-1
1.872e+2, -6.278e-1
1.873e+2, -6.290e-1
1.874e+2, -6.301e-1
1.875e+2, -6.313e-1
1.876e+2, -6.325e-1
1.877e+2, -6.337e-1
1.878e+2, -6.348e-1
1.879e+2, -6.360e-1
1.880e+2, -6.372e-1
1.881e+2, -6.384e-1
1.882e+2, -6.395e-1
1.883e+2, -6.407e-1
1.884e+2, -6.419e-1
1.885e+2, -6.430e-1
1.886e+2, -6.442e-1
1.887e+2, -6.454e-1
1.888e+2, -6.466e-1
1.889e+2, -6.477e-1
1.890e+2, -6.489e-1
1.891e+2, -6.500e-1
1.892e+2, -6.512e-1
1.893e+2, -6.523e-1
1.894e+2, -6.535e-1
1.895e+2, -6.547e-1
1.896e+2, -6.558e-1
1.897e+2, -6.570e-1
1.898e+2, -6.582e-1
1.899e+2, -6.593e-1
1.900e+2, -6.605e-1
1.901e+2, -6.616e-1
1.902e+2, -6.628e-1
1.903e+2, -6.640e-1
1.904e+2, -6.651e-1
1.905e+2, -6.663e-1
1.906e+2, -6.674e-1
1.907e+2, -6.686e-1
1.908e+2, -6.697e-1
1.909e+2, -6.709e-1
1.910e+2, -6.720e-1
1.911e+2, -6.732e-1
1.912e+2, -6.743e-1
1.913e+2, -6.755e-1
1.914e+2, -6.766e-1
1.915e+2, -6.778e-1
1.916e+2, -6.789e-1
1.917e+2, -6.801e-1
1.918e+2, -6.812e-1
1.919e+2, -6.823e-1
1.920e+2, -6.835e-1
1.921e+2, -6.846e-1
1.922e+2, -6.858e-1
1.923e+2, -6.869e-1
1.924e+2, -6.881e-1
1.925e+2, -6.892e-1
1.926e+2, -6.904e-1
1.927e+2, -6.915e-1
1.928e+2, -6.927e-1
1.929e+2, -6.938e-1
1.930e+2, -6.949e-1
1.931e+2, -6.961e-1
1.932e+2, -6.972e-1
1.933e+2, -6.984e-1
1.934e+2, -6.995e-1
1.935e+2, -7.006e-1
1.936e+2, -7.018e-1
1.937e+2, -7.029e-1
1.938e+2, -7.040e-1
1.939e+2, -7.052e-1
1.940e+2, -7.063e-1
1.941e+2, -7.075e-1
1.942e+2, -7.086e-1
1.943e+2, -7.098e-1
1.944e+2, -7.109e-1
1.945e+2, -7.120e-1
1.946e+2, -7.131e-1
1.947e+2, -7.143e-1
1.948e+2, -7.154e-1
1.949e+2, -7.166e-1
1.950e+2, -7.177e-1
1.951e+2, -7.188e-1
1.952e+2, -7.199e-1
1.953e+2, -7.211e-1
1.954e+2, -7.222e-1
1.955e+2, -7.234e-1
1.956e+2, -7.245e-1
1.957e+2, -7.257e-1
1.958e+2, -7.268e-1
1.959e+2, -7.279e-1
1.960e+2, -7.291e-1
1.961e+2, -7.302e-1
1.962e+2, -7.313e-1
1.963e+2, -7.325e-1
1.964e+2, -7.336e-1
1.965e+2, -7.347e-1
1.966e+2, -7.359e-1
1.967e+2, -7.370e-1
1.968e+2, -7.382e-1
1.969e+2, -7.393e-1
1.970e+2, -7.405e-1
1.971e+2, -7.416e-1
1.972e+2, -7.427e-1
1.973e+2, -7.439e-1
1.974e+2, -7.450e-1
1.975e+2, -7.461e-1
1.976e+2, -7.473e-1
1.977e+2, -7.484e-1
1.978e+2, -7.496e-1
1.979e+2, -7.507e-1
1.980e+2, -7.518e-1
1.981e+2, -7.530e-1
1.982e+2, -7.541e-1
1.983e+2, -7.552e-1
1.984e+2, -7.564e-1
1.985e+2, -7.575e-1
1.986e+2, -7.586e-1
1.987e+2, -7.598e-1
1.988e+2, -7.609e-1
1.989e+2, -7.621e-1
1.990e+2, -7.632e-1
1.991e+2, -7.643e-1
1.992e+2, -7.655e-1
1.993e+2, -7.666e-1
1.994e+2, -7.677e-1
1.995e+2, -7.689e-1
1.996e+2, -7.700e-1
1.997e+2, -7.711e-1
1.998e+2, -7.723e-1
1.999e+2, -7.734e-1
2.000e+2, -7.745e-1
2.001e+2, -7.756e-1
2.002e+2, -7.768e-1
2.003e+2, -7.779e-1
2.004e+2, -7.790e-1
2.005e+2, -7.802e-1
2.006e+2, -7.813e-1
2.007e+2, -7.825e-1
2.008e+2, -7.836e-1
2.009e+2, -7.847e-1
2.010e+2, -7.859e-1
2.011e+2, -7.870e-1
2.012e+2, -7.881e-1
2.013e+2, -7.893e-1
2.014e+2, -7.904e-1
2.015e+2, -7.915e-1
2.016e+2, -7.926e-1
2.017e+2, -7.938e-1
2.018e+2, -7.949e-1
2.019e+2, -7.960e-1
2.020e+2, -7.972e-1
2.021e+2, -7.983e-1
2.022e+2, -7.994e-1
2.023e+2, -8.006e-1
2.024e+2, -8.017e-1
2.025e+2, -8.028e-1
2.026e+2, -8.040e-1
2.027e+2, -8.051e-1
2.028e+2, -8.062e-1
2.029e+2, -8.073e-1
2.030e+2, -8.085e-1
2.031e+2, -8.096e-1
2.032e+2, -8.108e-1
2.033e+2, -8.119e-1
2.034e+2, -8.130e-1
2.035e+2, -8.142e-1
2.036e+2, -8.153e-1
2.037e+2, -8.164e-1
2.038e+2, -8.176e-1
2.039e+2, -8.187e-1
2.040e+2, -8.198e-1
2.041e+2, -8.210e-1
2.042e+2, -8.221e-1
2.043e+2, -8.232e-1
2.044e+2, -8.243e-1
2.045e+2, -8.255e-1
2.046e+2, -8.266e-1
2.047e+2, -8.277e-1
2.048e+2, -8.288e-1
2.049e+2, -8.300e-1
2.050e+2, -8.311e-1
2.051e+2, -8.322e-1
2.052e+2, -8.334e-1
2.053e+2, -8.345e-1
2.054e+2, -8.356e-1
2.055e+2, -8.367e-1
2.056e+2, -8.379e-1
2.057e+2, -8.390e-1
2.058e+2, -8.401e-1
2.059e+2, -8.412e-1
2.060e+2, -8.424e-1
2.061e+2, -8.435e-1
2.062e+2, -8.446e-1
2.063e+2, -8.457e-1
2.064e+2, -8.469e-1
2.065e+2, -8.480e-1
2.066e+2, -8.491e-1
2.067e+2, -8.502e-1
2.068e+2, -8.513e-1
2.069e+2, -8.524e-1
2.070e+2, -8.536e-1
2.071e+2, -8.547e-1
2.072e+2, -8.558e-1
2.073e+2, -8.569e-1
2.074e+2, -8.580e-1
2.075e+2, -8.592e-1
2.076e+2, -8.603e-1
2.077e+2, -8.614e-1
2.078e+2, -8.625e-1
2.079e+2, -8.636e-1
2.080e+2, -8.648e-1
2.081e+2, -8.659e-1
2.082e+2, -8.670e-1
2.083e+2, -8.681e-1
2.084e+2, -8.692e-1
2.085e+2, -8.703e-1
2.086e+2, -8.714e-1
2.087e+2, -8.725e-1
2.088e+2, -8.737e-1
2.089e+2, -8.748e-1
2.090e+2, -8.759e-1
2.091e+2, -8.770e-1
2.092e+2, -8.781e-1
2.093e+2, -8.792e-1
2.094e+2, -8.803e-1
2.095e+2, -8.814e-1
2.096e+2, -8.825e-1
2.097e+2, -8.836e-1
2.098e+2, -8.846e-1
2.099e+2, -8.857e-1
2.100e+2, -8.868e-1
2.101e+2, -8.879e-1
2.102e+2, -8.890e-1
2.103e+2, -8.901e-1
2.104e+2, -8.912e-1
2.105e+2, -8.923e-1
2.106e+2, -8.934e-1
2.107e+2, -8.944e-1
2.108e+2, -8.955e-1
2.109e+2, -8.966e-1
2.110e+2, -8.977e-1
2.111e+2, -8.988e-1
2.112e+2, -8.999e-1
